Field (T),Resistance (ohm)
-0.6460,21.8117
-11.9959,21.3887
6.5595,21.0899
-13.2269,21.4721
7.5712,21.1344
-4.6494,21.0297
-3.3459,21.4428
7.6661,21.1283
6.7484,21.0837
-5.9355,21.0656
12.2830,21.4337
13.3740,21.4861
11.6511,21.3728
5.9275,21.0626
-6.1726,21.0594
9.5162,21.2393
13.8476,21.5546
-3.2836,21.4568
-4.9152,21.0322
9.6746,21.2469
-1.1798,21.7827
-4.0365,21.0297
9.1994,21.2264
11.7138,21.3751
5.6894,21.0543
4.0137,21.0321
-7.9589,21.1522
-11.5275,21.3459
-0.2840,21.8212
9.7213,21.2619
