Field (T),Resistance Ch1 (Ohms)
5.3217,3.1027
0.1904,2.2479
11.2740,4.2655
-12.5537,-0.1452
12.5307,4.5193
0.9144,2.3345
4.4830,2.9739
0.4664,2.2812
10.4601,4.0774
10.0806,3.9792
-0.5003,2.1356
-9.6239,0.4558
4.0013,2.8813
9.8515,3.9458
-9.6850,0.4434
3.7653,2.8265
8.9576,3.7671
12.1745,4.4523
-0.8934,2.0715
0.1049,2.2360
-7.8775,0.7914
-1.4828,1.9715
-10.3405,0.3170
-13.9330,-0.4655
3.1579,2.7076
-6.8187,0.9698
-8.7583,0.6127
12.4358,4.4917
10.4118,4.0691
6.7761,3.3655
