Field (T),Resistance Ch1 (Ohms)
3.5096,2.9277
-10.1956,0.4018
-2.7036,1.8465
-5.9360,1.2467
-11.5438,0.1712
-6.3439,1.1669
-6.4221,1.1419
4.4025,3.0565
5.2791,3.1979
-1.2817,2.1417
1.6735,2.6672
-13.7578,-0.3590
-3.7232,1.6519
5.6577,3.2688
2.8309,2.8314
2.8228,2.8277
-1.0701,2.1857
10.7328,4.1953
-13.0087,-0.1522
9.0101,3.8605
12.7961,4.6369
-9.5416,0.5392
-9.3625,0.5873
-9.1128,0.6302
-2.4122,1.9098
8.1489,3.6955
6.4795,3.4029
-7.3568,0.9802
12.3378,4.5312
1.8462,2.6989
