Field (T),Resistance (ohm)
-9.1192,24.6787
7.7072,24.3195
2.9741,25.2025
-13.4757,24.7250
-0.9344,25.5775
-7.0728,24.7743
-8.9243,24.6706
2.1944,25.3353
12.6246,24.5195
6.8129,24.4274
-12.3606,24.4952
-1.6492,25.5806
0.5893,25.5670
8.0152,24.2976
1.5572,25.4572
2.7465,25.3599
3.8957,24.9948
1.6116,25.4270
-6.5389,24.6453
-8.7539,24.8717
-0.3215,25.6404
5.4057,24.4065
2.6672,25.2754
-7.1990,24.8587
5.9590,24.4107
-13.5296,24.8753
4.4737,24.7408
4.6080,24.5333
9.0910,24.3076
4.7198,24.5088
