Field (T),Resistance (ohm)
-10.9416,21.2471
8.3248,21.1264
9.6370,21.1790
6.9331,21.0617
-13.5136,21.4061
3.0465,21.4176
-5.6438,21.0171
9.7937,21.1995
-7.0567,21.0580
2.9833,21.4360
-12.3604,21.3323
4.1975,20.9963
1.7391,21.7239
13.2263,21.3603
-1.8760,21.6944
-7.3856,21.0814
10.7424,21.2423
0.9207,21.7939
-12.2660,21.3088
3.8182,21.0054
6.2841,21.0207
5.9207,21.0247
1.6607,21.7292
8.1183,21.1112
1.8015,21.7134
3.4088,21.1621
4.0077,20.9988
4.0391,20.9962
5.1785,21.0114
-5.4243,21.0101
