Field (T),Resistance Ch1 (Ohms)
-12.1687,-0.0003
-6.0852,1.1563
-0.6305,2.1912
12.2188,4.4742
10.5128,4.1134
5.1360,3.1397
5.9272,3.2473
12.7807,4.6455
-11.1382,0.1815
12.2115,4.4796
-7.8888,0.8446
-11.2166,0.1640
3.5169,2.9029
-13.8038,-0.3532
-11.1857,0.1821
1.8312,2.5847
-4.2795,1.4956
12.7726,4.6047
5.4134,3.1888
9.4481,3.9303
13.7683,4.8227
12.8120,4.6317
3.2494,2.8543
-11.6447,0.0990
9.8550,4.0067
-3.8166,1.5862
-3.9276,1.5644
2.2413,2.6585
7.4518,3.5440
12.6143,4.6086
