Field (T),Resistance Ch1 (Ohms)
-5.1259,1.3456
-9.3502,0.5684
4.9307,3.1031
4.0220,2.9698
-3.4877,1.6589
4.8606,3.0997
11.9086,4.4159
3.3724,2.8689
7.8423,3.6005
-1.3136,2.0793
-12.1475,0.0015
-11.7380,0.1269
12.4537,4.5605
-10.5559,0.3270
-8.5934,0.6954
-12.0208,-0.0051
-0.8364,2.1665
6.3627,3.3402
-11.4294,0.1472
3.5841,2.9114
10.2445,4.0784
4.2028,2.9864
-5.2044,1.3277
12.2978,4.5075
-0.2541,2.2652
9.7706,3.9736
-12.3687,-0.0862
7.2084,3.4865
4.6877,3.0725
12.3983,4.5140
