Field (T),Resistance (ohm)
-8.0916,25.6890
-6.1635,25.5911
9.3740,25.5124
-3.0080,26.1529
5.2001,25.5565
9.4859,25.1733
3.6427,25.7412
0.8711,26.7407
-0.5819,26.7798
-6.8387,25.6215
-3.9412,25.9061
0.1640,26.7400
-11.6446,25.2325
6.8838,25.1430
3.1010,25.9251
3.9668,25.6830
-5.5975,25.7005
-12.9310,25.2797
-10.7631,25.1560
13.3500,24.7291
7.8093,25.2032
-13.9905,25.3404
11.7621,24.5792
-6.6407,25.6445
-4.4210,25.7680
-1.0214,26.6045
0.2432,26.7171
3.5105,25.7465
6.6779,25.1160
1.8470,26.3790
