Field (T),Resistance (ohm)
-0.9568,25.8121
10.4657,24.4555
-0.7539,25.8680
-4.0356,25.1872
6.0474,24.4916
-0.8722,25.8274
3.2192,25.3356
-8.1981,24.8226
2.3225,25.5515
-5.8158,24.7482
4.6892,24.7417
6.3714,24.4528
2.3602,25.5301
8.1968,24.5490
2.9275,25.4033
13.3433,24.2744
-1.8058,25.7451
-3.7124,25.2793
1.5821,25.6951
11.9686,24.0749
11.9767,24.0294
5.6124,24.5460
13.9125,24.1802
2.3057,25.5682
-6.3816,24.8050
4.4576,24.7392
-0.8873,25.8128
10.3708,24.3332
-3.6892,25.4038
4.9401,24.6853
