Field (T),Resistance (ohm)
1.6046,22.4109
-13.2419,21.9669
8.5048,21.7153
8.6311,21.7338
-7.7088,21.7245
7.3503,21.7246
-9.0336,21.7316
10.7963,21.7967
-2.5761,22.3077
5.0892,21.7655
-6.4525,21.7332
-0.1582,22.4530
10.4015,21.7889
4.6155,21.8205
-11.3879,21.8480
-5.2758,21.7653
-7.4423,21.7181
-11.9023,21.8573
9.2945,21.7403
6.6860,21.7053
-9.3617,21.7597
-8.0990,21.7205
1.8549,22.3913
-2.4978,22.3073
-1.9804,22.3932
7.0343,21.7108
10.8276,21.8093
-2.9537,22.2201
-5.6222,21.7467
8.6938,21.7270
